Calculated from global_tas_Amon_HadGEM2-ES_rcp85_ave.dat.txt using GCM_mean_temp_annual_convert.m
Year Temp(K)
1860 286.840833
1861 286.869483
1862 286.876517
1863 286.812700
1864 286.830925
1865 286.721658
1866 286.664592
1867 286.711908
1868 286.704825
1869 286.781617
1870 286.765533
1871 286.786667
1872 286.861708
1873 286.890275
1874 286.888000
1875 286.846292
1876 286.805308
1877 286.845758
1878 286.856492
1879 286.778750
1880 286.714467
1881 286.772592
1882 286.778383
1883 286.724750
1884 286.521392
1885 286.554825
1886 286.570650
1887 286.530217
1888 286.633750
1889 286.623258
1890 286.610942
1891 286.550158
1892 286.611983
1893 286.590800
1894 286.624367
1895 286.720717
1896 286.810592
1897 286.729683
1898 286.728650
1899 286.853117
1900 286.827625
1901 286.889658
1902 286.825217
1903 286.659325
1904 286.591958
1905 286.732842
1906 286.751917
1907 286.775408
1908 286.758958
1909 286.692100
1910 286.784633
1911 286.708067
1912 286.664833
1913 286.708242
1914 286.764792
1915 286.808742
1916 286.898683
1917 286.963558
1918 286.915492
1919 286.939817
1920 286.943017
1921 286.938383
1922 286.932725
1923 286.913658
1924 286.975667
1925 286.959675
1926 286.940000
1927 286.885683
1928 286.921183
1929 286.939242
1930 286.928958
1931 286.895467
1932 286.903267
1933 286.898875
1934 286.903583
1935 286.929867
1936 286.956867
1937 287.010225
1938 287.042183
1939 287.014058
1940 286.908725
1941 286.937608
1942 286.994175
1943 287.016950
1944 287.055550
1945 287.065400
1946 287.049200
1947 287.073283
1948 287.114675
1949 287.103533
1950 287.052592
1951 287.001583
1952 286.965950
1953 286.986267
1954 286.940908
1955 286.906600
1956 286.988700
1957 286.966700
1958 286.907533
1959 286.890975
1960 286.821142
1961 286.843000
1962 286.849708
1963 286.819925
1964 286.677225
1965 286.612692
1966 286.603750
1967 286.696692
1968 286.817025
1969 286.810842
1970 286.770775
1971 286.761942
1972 286.878542
1973 286.871067
1974 286.899383
1975 286.792875
1976 286.783258
1977 286.887375
1978 286.860642
1979 286.915392
1980 286.941342
1981 286.946558
1982 286.912833
1983 286.795200
1984 286.901083
1985 287.008358
1986 287.026233
1987 287.009992
1988 287.010275
1989 287.029417
1990 287.071175
1991 287.069958
1992 286.840108
1993 286.899992
1994 287.007892
1995 287.086275
1996 287.080117
1997 287.128292
1998 287.263825
1999 287.285242
2000 287.343475
2001 287.422200
2002 287.468208
2003 287.459242
2004 287.439083
2005 287.465175
2006 287.522250
2007 287.532042
2008 287.638458
2009 287.671867
2010 287.728550
2011 287.728650
2012 287.704567
2013 287.767575
2014 287.818042
2015 287.877225
2016 287.954008
2017 287.972392
2018 287.980875
2019 288.016325
2020 288.088550
2021 288.123925
2022 288.137817
2023 288.198067
2024 288.118608
2025 288.191983
2026 288.279167
2027 288.324617
2028 288.354100
2029 288.447683
2030 288.486367
2031 288.458567
2032 288.529133
2033 288.561575
2034 288.590658
2035 288.660267
2036 288.721850
2037 288.782300
2038 288.862942
2039 288.896092
2040 288.906875
2041 288.934150
2042 288.917900
2043 289.023783
2044 289.060400
2045 289.162658
2046 289.206008
2047 289.296183
2048 289.364308
2049 289.374342
2050 289.502558
2051 289.526850
2052 289.580392
2053 289.612825
2054 289.713642
2055 289.762617
2056 289.832325
2057 289.941992
2058 290.037925
2059 290.162292
2060 290.180992
2061 290.140358
2062 290.141875
2063 290.163783
2064 290.183092
2065 290.295550
2066 290.404108
2067 290.485608
2068 290.587775
2069 290.611792
2070 290.692750
2071 290.714058
2072 290.746083
2073 290.832808
2074 290.850800
2075 290.884000
2076 290.995075
2077 291.100142
2078 291.213217
2079 291.249692
2080 291.394325
2081 291.385058
2082 291.406708
2083 291.401733
2084 291.428367
2085 291.472458
2086 291.652008
2087 291.691683
2088 291.767583
2089 291.767008
2090 291.860850
2091 291.986492
2092 291.973275
2093 292.044017
2094 292.003433
2095 292.076025
2096 292.065183
2097 292.270267
2098 292.296158
2099 292.347683
2100 292.324283
